#TREATMENT-PLAN-DESCRIPTION
#PlanName
BP23-PB 
#NumberOfFractions
1
##FractionID
1
##NumberOfFields
1
###FieldsID
1
#TotalMetersetWeightOfAllFields
550

#FIELD-DESCRIPTION
###FieldID
1
###FinalCumulativeMeterSetWeight
550.108
###GantryAngle
0
###PatientSupportAngle
270
###IsocenterPosition
0 -170 250
###NumberOfControlPoints
2

#SPOTS-DESCRIPTION
####ControlPointIndex
0
####SpotTunnedID
Spot1 
####CumulativeMetersetWeight
0
####Energy (MeV)
190.6
####NbOfScannedSpots
364
####X Y Weight
-49.1822 57.841 1.78032
-42.6457 57.841 1.77651
-36.1093 57.841 1.78091
-29.5728 57.841 1.7691
-23.0363 57.841 1.76129
-16.4999 57.841 1.772
-9.96339 57.841 1.76888
-3.42693 57.841 1.77069
3.10953 57.841 1.77043
9.646 57.841 1.76887
16.1825 57.841 1.77281
22.7189 57.841 1.76114
29.2554 57.841 1.76789
35.7919 57.841 1.78242
42.3283 57.841 1.77245
48.8648 57.841 1.80784
52.133 52.1803 1.85237
45.5966 52.1803 1.6679
39.0601 52.1803 1.51311
32.5236 52.1803 1.60487
25.9872 52.1803 1.54317
19.4507 52.1803 1.57775
12.9142 52.1803 1.56422
6.37777 52.1803 1.56668
-0.158698 52.1803 1.56947
-6.69516 52.1803 1.56777
-13.2316 52.1803 1.56648
-19.7681 52.1803 1.57824
-26.3046 52.1803 1.54784
-32.841 52.1803 1.59757
-39.3775 52.1803 1.5295
-45.9139 52.1803 1.69362
-52.4504 52.1803 1.80248
-55.7186 46.5196 1.68276
-49.1822 46.5196 1.60499
-42.6457 46.5196 1.3434
-36.1093 46.5196 1.44003
-29.5728 46.5196 1.41614
-23.0363 46.5196 1.42338
-16.4999 46.5196 1.43244
-9.96339 46.5196 1.4174
-3.42693 46.5196 1.42441
3.10953 46.5196 1.4251
9.646 46.5196 1.41469
16.1825 46.5196 1.42779
22.7189 46.5196 1.42174
29.2554 46.5196 1.41403
35.7919 46.5196 1.44804
42.3283 46.5196 1.31397
48.8648 46.5196 1.58566
55.4012 46.5196 1.72961
52.133 40.8588 1.78506
45.5966 40.8588 1.43605
39.0601 40.8588 1.47778
32.5236 40.8588 1.49208
25.9872 40.8588 1.44637
19.4507 40.8588 1.49504
12.9142 40.8588 1.4676
6.37777 40.8588 1.47723
-0.158698 40.8588 1.47926
-6.69516 40.8588 1.47749
-13.2316 40.8588 1.47286
-19.7681 40.8588 1.49392
-26.3046 40.8588 1.44926
-32.841 40.8588 1.49088
-39.3775 40.8588 1.47782
-45.9139 40.8588 1.46063
-52.4504 40.8588 1.73897
-55.7186 35.1981 1.68072
-49.1822 35.1981 1.62366
-42.6457 35.1981 1.43632
-36.1093 35.1981 1.4634
-29.5728 35.1981 1.3895
-23.0363 35.1981 1.4251
-16.4999 35.1981 1.42808
-9.96339 35.1981 1.41841
-3.42693 35.1981 1.42304
3.10953 35.1981 1.42464
9.646 35.1981 1.41644
16.1825 35.1981 1.42589
22.7189 35.1981 1.43061
29.2554 35.1981 1.38274
35.7919 35.1981 1.4685
42.3283 35.1981 1.42795
48.8648 35.1981 1.62713
55.4012 35.1981 1.73722
52.133 29.5373 1.75258
45.5966 29.5373 1.41272
39.0601 29.5373 1.42107
32.5236 29.5373 1.40563
25.9872 29.5373 1.37525
19.4507 29.5373 1.40571
12.9142 29.5373 1.37683
6.37777 29.5373 1.38832
-0.158698 29.5373 1.38151
-6.69516 29.5373 1.38776
-13.2316 29.5373 1.38031
-19.7681 29.5373 1.40238
-26.3046 29.5373 1.37491
-32.841 29.5373 1.40506
-39.3775 29.5373 1.42069
-45.9139 29.5373 1.42915
-52.4504 29.5373 1.70061
-55.7186 23.8766 1.67134
-49.1822 23.8766 1.60894
-42.6457 23.8766 1.43686
-36.1093 23.8766 1.4823
-29.5728 23.8766 1.41805
-23.0363 23.8766 1.42802
-16.4999 23.8766 1.42079
-9.96339 23.8766 1.41694
-3.42693 23.8766 1.41708
3.10953 23.8766 1.41819
9.646 23.8766 1.41576
16.1825 23.8766 1.41873
22.7189 23.8766 1.43136
29.2554 23.8766 1.41612
35.7919 23.8766 1.49046
42.3283 23.8766 1.42122
48.8648 23.8766 1.60143
55.4012 23.8766 1.72476
52.133 18.2158 1.77299
45.5966 18.2158 1.43476
39.0601 18.2158 1.4474
32.5236 18.2158 1.43325
25.9872 18.2158 1.38152
19.4507 18.2158 1.40857
12.9142 18.2158 1.38557
6.37777 18.2158 1.39511
-0.158698 18.2158 1.39044
-6.69516 18.2158 1.39487
-13.2316 18.2158 1.38736
-19.7681 18.2158 1.40518
-26.3046 18.2158 1.38299
-32.841 18.2158 1.43304
-39.3775 18.2158 1.45244
-45.9139 18.2158 1.4593
-52.4504 18.2158 1.72211
-55.7186 12.5551 1.66998
-49.1822 12.5551 1.59947
-42.6457 12.5551 1.42528
-36.1093 12.5551 1.46512
-29.5728 12.5551 1.39219
-23.0363 12.5551 1.40158
-16.4999 12.5551 1.39582
-9.96339 12.5551 1.3874
-3.42693 12.5551 1.3923
3.10953 12.5551 1.39375
9.646 12.5551 1.38626
16.1825 12.5551 1.39412
22.7189 12.5551 1.40527
29.2554 12.5551 1.38774
35.7919 12.5551 1.4673
42.3283 12.5551 1.40495
48.8648 12.5551 1.59202
55.4012 12.5551 1.72451
52.133 6.89434 1.77202
45.5966 6.89434 1.4383
39.0601 6.89434 1.45595
32.5236 6.89434 1.44571
25.9872 6.89434 1.39553
19.4507 6.89434 1.42273
12.9142 6.89434 1.39588
6.37777 6.89434 1.40618
-0.158698 6.89434 1.40342
-6.69516 6.89434 1.4052
-13.2316 6.89434 1.39908
-19.7681 6.89434 1.4202
-26.3046 6.89434 1.39593
-32.841 6.89434 1.44619
-39.3775 6.89434 1.4632
-45.9139 6.89434 1.46345
-52.4504 6.89434 1.72093
-55.7186 1.2336 1.66945
-49.1822 1.2336 1.60006
-42.6457 1.2336 1.42771
-36.1093 1.2336 1.46507
-29.5728 1.2336 1.38533
-23.0363 1.2336 1.39473
-16.4999 1.2336 1.39433
-9.96339 1.2336 1.38791
-3.42693 1.2336 1.3907
3.10953 1.2336 1.39202
9.646 1.2336 1.38664
16.1825 1.2336 1.3926
22.7189 1.2336 1.39878
29.2554 1.2336 1.38187
35.7919 1.2336 1.46741
42.3283 1.2336 1.40684
48.8648 1.2336 1.59126
55.4012 1.2336 1.72309
52.133 -4.42715 1.77462
45.5966 -4.42715 1.43847
39.0601 -4.42715 1.45467
32.5236 -4.42715 1.44582
25.9872 -4.42715 1.39401
19.4507 -4.42715 1.42159
12.9142 -4.42715 1.39583
6.37777 -4.42715 1.40544
-0.158698 -4.42715 1.40361
-6.69516 -4.42715 1.40558
-13.2316 -4.42715 1.39818
-19.7681 -4.42715 1.41795
-26.3046 -4.42715 1.39495
-32.841 -4.42715 1.44597
-39.3775 -4.42715 1.46113
-45.9139 -4.42715 1.46364
-52.4504 -4.42715 1.72408
-55.7186 -10.0879 1.67209
-49.1822 -10.0879 1.59924
-42.6457 -10.0879 1.4195
-36.1093 -10.0879 1.46398
-29.5728 -10.0879 1.39987
-23.0363 -10.0879 1.41099
-16.4999 -10.0879 1.40475
-9.96339 -10.0879 1.39477
-3.42693 -10.0879 1.40075
3.10953 -10.0879 1.4022
9.646 -10.0879 1.39379
16.1825 -10.0879 1.40263
22.7189 -10.0879 1.41367
29.2554 -10.0879 1.39619
35.7919 -10.0879 1.4676
42.3283 -10.0879 1.39921
48.8648 -10.0879 1.58983
55.4012 -10.0879 1.72562
52.133 -15.7486 1.76901
45.5966 -15.7486 1.42004
39.0601 -15.7486 1.42907
32.5236 -15.7486 1.42114
25.9872 -15.7486 1.371
19.4507 -15.7486 1.39901
12.9142 -15.7486 1.37517
6.37777 -15.7486 1.38483
-0.158698 -15.7486 1.38124
-6.69516 -15.7486 1.38354
-13.2316 -15.7486 1.3784
-19.7681 -15.7486 1.39655
-26.3046 -15.7486 1.37119
-32.841 -15.7486 1.42031
-39.3775 -15.7486 1.43463
-45.9139 -15.7486 1.44508
-52.4504 -15.7486 1.71993
-55.7186 -21.4094 1.67694
-49.1822 -21.4094 1.622
-42.6457 -21.4094 1.4459
-36.1093 -21.4094 1.49798
-29.5728 -21.4094 1.42915
-23.0363 -21.4094 1.43108
-16.4999 -21.4094 1.4285
-9.96339 -21.4094 1.42518
-3.42693 -21.4094 1.42413
3.10953 -21.4094 1.42584
9.646 -21.4094 1.42367
16.1825 -21.4094 1.42676
22.7189 -21.4094 1.43545
29.2554 -21.4094 1.42294
35.7919 -21.4094 1.5004
42.3283 -21.4094 1.42839
48.8648 -21.4094 1.61442
55.4012 -21.4094 1.73074
52.133 -27.0701 1.74491
45.5966 -27.0701 1.40436
39.0601 -27.0701 1.42361
32.5236 -27.0701 1.41963
25.9872 -27.0701 1.38478
19.4507 -27.0701 1.41394
12.9142 -27.0701 1.38915
6.37777 -27.0701 1.40071
-0.158698 -27.0701 1.39275
-6.69516 -27.0701 1.40062
-13.2316 -27.0701 1.39196
-19.7681 -27.0701 1.4112
-26.3046 -27.0701 1.38926
-32.841 -27.0701 1.42283
-39.3775 -27.0701 1.4268
-45.9139 -27.0701 1.42473
-52.4504 -27.0701 1.69467
-55.7186 -32.7309 1.67222
-49.1822 -32.7309 1.59756
-42.6457 -32.7309 1.41509
-36.1093 -32.7309 1.43168
-29.5728 -32.7309 1.35803
-23.0363 -32.7309 1.39814
-16.4999 -32.7309 1.39735
-9.96339 -32.7309 1.38933
-3.42693 -32.7309 1.39385
3.10953 -32.7309 1.39457
9.646 -32.7309 1.38755
16.1825 -32.7309 1.39503
22.7189 -32.7309 1.39958
29.2554 -32.7309 1.3536
35.7919 -32.7309 1.4361
42.3283 -32.7309 1.39747
48.8648 -32.7309 1.59631
55.4012 -32.7309 1.72956
52.133 -38.3916 1.81665
45.5966 -38.3916 1.47505
39.0601 -38.3916 1.50721
32.5236 -38.3916 1.50298
25.9872 -38.3916 1.45611
19.4507 -38.3916 1.50859
12.9142 -38.3916 1.4778
6.37777 -38.3916 1.48332
-0.158698 -38.3916 1.48516
-6.69516 -38.3916 1.48433
-13.2316 -38.3916 1.48181
-19.7681 -38.3916 1.5059
-26.3046 -38.3916 1.45484
-32.841 -38.3916 1.50286
-39.3775 -38.3916 1.50928
-45.9139 -38.3916 1.48659
-52.4504 -38.3916 1.75277
-55.7186 -44.0524 1.69575
-49.1822 -44.0524 1.51481
-42.6457 -44.0524 1.27313
-36.1093 -44.0524 1.39855
-29.5728 -44.0524 1.36684
-23.0363 -44.0524 1.36859
-16.4999 -44.0524 1.38378
-9.96339 -44.0524 1.36121
-3.42693 -44.0524 1.36704
3.10953 -44.0524 1.36792
9.646 -44.0524 1.35797
16.1825 -44.0524 1.38014
22.7189 -44.0524 1.37433
29.2554 -44.0524 1.36305
35.7919 -44.0524 1.40924
42.3283 -44.0524 1.27714
48.8648 -44.0524 1.50758
55.4012 -44.0524 1.72924
52.133 -49.7131 1.90005
45.5966 -49.7131 1.54213
39.0601 -49.7131 1.41157
32.5236 -49.7131 1.48842
25.9872 -49.7131 1.42813
19.4507 -49.7131 1.46058
12.9142 -49.7131 1.4423
6.37777 -49.7131 1.44187
-0.158698 -49.7131 1.44844
-6.69516 -49.7131 1.44139
-13.2316 -49.7131 1.4478
-19.7681 -49.7131 1.45835
-26.3046 -49.7131 1.42951
-32.841 -49.7131 1.48728
-39.3775 -49.7131 1.39051
-45.9139 -49.7131 1.58381
-52.4504 -49.7131 1.91874
-49.1822 -55.3738 2.07851
-42.6457 -55.3738 2.02528
-36.1093 -55.3738 2.02749
-29.5728 -55.3738 2.02455
-23.0363 -55.3738 1.99675
-16.4999 -55.3738 2.02105
-9.96339 -55.3738 2.00792
-3.42693 -55.3738 2.01377
3.10953 -55.3738 2.01593
9.646 -55.3738 2.00691
16.1825 -55.3738 2.0172
22.7189 -55.3738 1.99926
29.2554 -55.3738 2.01511
35.7919 -55.3738 2.04501
42.3283 -55.3738 2.01529
48.8648 -55.3738 2.04254
####ControlPointIndex
1
####SpotTunnedID
0 
####CumulativeMetersetWeight
550.108
####Energy (MeV)
0
####NbOfScannedSpots
0
####X Y Weight
