#TREATMENT-PLAN-DESCRIPTION
#PlanName
BP27-PB 
#NumberOfFractions
1
##FractionID
1
##NumberOfFields
1
###FieldsID
1
#TotalMetersetWeightOfAllFields
634

#FIELD-DESCRIPTION
###FieldID
1
###FinalCumulativeMeterSetWeight
634
###GantryAngle
0
###PatientSupportAngle
270
###IsocenterPosition
0 -170 250
###NumberOfControlPoints
2

#SPOTS-DESCRIPTION
####ControlPointIndex
0
####SpotTunnedID
Spot1 
####CumulativeMetersetWeight
0
####Energy (MeV)
205.3
####NbOfScannedSpots
317
####X Y Weight
-48.7023 57.6332 2
-41.6859 57.6332 2
-34.6695 57.6332 2
-27.6531 57.6332 2
-20.6367 57.6332 2
-13.6204 57.6332 2
-6.60397 57.6332 2
0.412409 57.6332 2
7.42879 57.6332 2
14.4452 57.6332 2
21.4616 57.6332 2
28.4779 57.6332 2
35.4943 57.6332 2
42.5107 57.6332 2
49.5271 57.6332 2
53.0353 51.5569 2
46.0189 51.5569 2
39.0025 51.5569 2
31.9861 51.5569 2
24.9697 51.5569 2
17.9534 51.5569 2
10.937 51.5569 2
3.9206 51.5569 2
-3.09578 51.5569 2
-10.1122 51.5569 2
-17.1285 51.5569 2
-24.1449 51.5569 2
-31.1613 51.5569 2
-38.1777 51.5569 2
-45.1941 51.5569 2
-52.2105 51.5569 2
-55.7186 45.4805 2
-48.7023 45.4805 2
-41.6859 45.4805 2
-34.6695 45.4805 2
-27.6531 45.4805 2
-20.6367 45.4805 2
-13.6204 45.4805 2
-6.60397 45.4805 2
0.412409 45.4805 2
7.42879 45.4805 2
14.4452 45.4805 2
21.4616 45.4805 2
28.4779 45.4805 2
35.4943 45.4805 2
42.5107 45.4805 2
49.5271 45.4805 2
53.0353 39.4041 2
46.0189 39.4041 2
39.0025 39.4041 2
31.9861 39.4041 2
24.9697 39.4041 2
17.9534 39.4041 2
10.937 39.4041 2
3.9206 39.4041 2
-3.09578 39.4041 2
-10.1122 39.4041 2
-17.1285 39.4041 2
-24.1449 39.4041 2
-31.1613 39.4041 2
-38.1777 39.4041 2
-45.1941 39.4041 2
-52.2105 39.4041 2
-55.7186 33.3278 2
-48.7023 33.3278 2
-41.6859 33.3278 2
-34.6695 33.3278 2
-27.6531 33.3278 2
-20.6367 33.3278 2
-13.6204 33.3278 2
-6.60397 33.3278 2
0.412409 33.3278 2
7.42879 33.3278 2
14.4452 33.3278 2
21.4616 33.3278 2
28.4779 33.3278 2
35.4943 33.3278 2
42.5107 33.3278 2
49.5271 33.3278 2
53.0353 27.2514 2
46.0189 27.2514 2
39.0025 27.2514 2
31.9861 27.2514 2
24.9697 27.2514 2
17.9534 27.2514 2
10.937 27.2514 2
3.9206 27.2514 2
-3.09578 27.2514 2
-10.1122 27.2514 2
-17.1285 27.2514 2
-24.1449 27.2514 2
-31.1613 27.2514 2
-38.1777 27.2514 2
-45.1941 27.2514 2
-52.2105 27.2514 2
-55.7186 21.175 2
-48.7023 21.175 2
-41.6859 21.175 2
-34.6695 21.175 2
-27.6531 21.175 2
-20.6367 21.175 2
-13.6204 21.175 2
-6.60397 21.175 2
0.412409 21.175 2
7.42879 21.175 2
14.4452 21.175 2
21.4616 21.175 2
28.4779 21.175 2
35.4943 21.175 2
42.5107 21.175 2
49.5271 21.175 2
53.0353 15.0987 2
46.0189 15.0987 2
39.0025 15.0987 2
31.9861 15.0987 2
24.9697 15.0987 2
17.9534 15.0987 2
10.937 15.0987 2
3.9206 15.0987 2
-3.09578 15.0987 2
-10.1122 15.0987 2
-17.1285 15.0987 2
-24.1449 15.0987 2
-31.1613 15.0987 2
-38.1777 15.0987 2
-45.1941 15.0987 2
-52.2105 15.0987 2
-55.7186 9.02231 2
-48.7023 9.02231 2
-41.6859 9.02231 2
-34.6695 9.02231 2
-27.6531 9.02231 2
-20.6367 9.02231 2
-13.6204 9.02231 2
-6.60397 9.02231 2
0.412409 9.02231 2
7.42879 9.02231 2
14.4452 9.02231 2
21.4616 9.02231 2
28.4779 9.02231 2
35.4943 9.02231 2
42.5107 9.02231 2
49.5271 9.02231 2
53.0353 2.94595 2
46.0189 2.94595 2
39.0025 2.94595 2
31.9861 2.94595 2
24.9697 2.94595 2
17.9534 2.94595 2
10.937 2.94595 2
3.9206 2.94595 2
-3.09578 2.94595 2
-10.1122 2.94595 2
-17.1285 2.94595 2
-24.1449 2.94595 2
-31.1613 2.94595 2
-38.1777 2.94595 2
-45.1941 2.94595 2
-52.2105 2.94595 2
-55.7186 -3.13042 2
-48.7023 -3.13042 2
-41.6859 -3.13042 2
-34.6695 -3.13042 2
-27.6531 -3.13042 2
-20.6367 -3.13042 2
-13.6204 -3.13042 2
-6.60397 -3.13042 2
0.412409 -3.13042 2
7.42879 -3.13042 2
14.4452 -3.13042 2
21.4616 -3.13042 2
28.4779 -3.13042 2
35.4943 -3.13042 2
42.5107 -3.13042 2
49.5271 -3.13042 2
53.0353 -9.20678 2
46.0189 -9.20678 2
39.0025 -9.20678 2
31.9861 -9.20678 2
24.9697 -9.20678 2
17.9534 -9.20678 2
10.937 -9.20678 2
3.9206 -9.20678 2
-3.09578 -9.20678 2
-10.1122 -9.20678 2
-17.1285 -9.20678 2
-24.1449 -9.20678 2
-31.1613 -9.20678 2
-38.1777 -9.20678 2
-45.1941 -9.20678 2
-52.2105 -9.20678 2
-55.7186 -15.2831 2
-48.7023 -15.2831 2
-41.6859 -15.2831 2
-34.6695 -15.2831 2
-27.6531 -15.2831 2
-20.6367 -15.2831 2
-13.6204 -15.2831 2
-6.60397 -15.2831 2
0.412409 -15.2831 2
7.42879 -15.2831 2
14.4452 -15.2831 2
21.4616 -15.2831 2
28.4779 -15.2831 2
35.4943 -15.2831 2
42.5107 -15.2831 2
49.5271 -15.2831 2
53.0353 -21.3595 2
46.0189 -21.3595 2
39.0025 -21.3595 2
31.9861 -21.3595 2
24.9697 -21.3595 2
17.9534 -21.3595 2
10.937 -21.3595 2
3.9206 -21.3595 2
-3.09578 -21.3595 2
-10.1122 -21.3595 2
-17.1285 -21.3595 2
-24.1449 -21.3595 2
-31.1613 -21.3595 2
-38.1777 -21.3595 2
-45.1941 -21.3595 2
-52.2105 -21.3595 2
-55.7186 -27.4359 2
-48.7023 -27.4359 2
-41.6859 -27.4359 2
-34.6695 -27.4359 2
-27.6531 -27.4359 2
-20.6367 -27.4359 2
-13.6204 -27.4359 2
-6.60397 -27.4359 2
0.412409 -27.4359 2
7.42879 -27.4359 2
14.4452 -27.4359 2
21.4616 -27.4359 2
28.4779 -27.4359 2
35.4943 -27.4359 2
42.5107 -27.4359 2
49.5271 -27.4359 2
53.0353 -33.5122 2
46.0189 -33.5122 2
39.0025 -33.5122 2
31.9861 -33.5122 2
24.9697 -33.5122 2
17.9534 -33.5122 2
10.937 -33.5122 2
3.9206 -33.5122 2
-3.09578 -33.5122 2
-10.1122 -33.5122 2
-17.1285 -33.5122 2
-24.1449 -33.5122 2
-31.1613 -33.5122 2
-38.1777 -33.5122 2
-45.1941 -33.5122 2
-52.2105 -33.5122 2
-55.7186 -39.5886 2
-48.7023 -39.5886 2
-41.6859 -39.5886 2
-34.6695 -39.5886 2
-27.6531 -39.5886 2
-20.6367 -39.5886 2
-13.6204 -39.5886 2
-6.60397 -39.5886 2
0.412409 -39.5886 2
7.42879 -39.5886 2
14.4452 -39.5886 2
21.4616 -39.5886 2
28.4779 -39.5886 2
35.4943 -39.5886 2
42.5107 -39.5886 2
49.5271 -39.5886 2
53.0353 -45.665 2
46.0189 -45.665 2
39.0025 -45.665 2
31.9861 -45.665 2
24.9697 -45.665 2
17.9534 -45.665 2
10.937 -45.665 2
3.9206 -45.665 2
-3.09578 -45.665 2
-10.1122 -45.665 2
-17.1285 -45.665 2
-24.1449 -45.665 2
-31.1613 -45.665 2
-38.1777 -45.665 2
-45.1941 -45.665 2
-52.2105 -45.665 2
-55.7186 -51.7413 2
-48.7023 -51.7413 2
-41.6859 -51.7413 2
-34.6695 -51.7413 2
-27.6531 -51.7413 2
-20.6367 -51.7413 2
-13.6204 -51.7413 2
-6.60397 -51.7413 2
0.412409 -51.7413 2
7.42879 -51.7413 2
14.4452 -51.7413 2
21.4616 -51.7413 2
28.4779 -51.7413 2
35.4943 -51.7413 2
42.5107 -51.7413 2
49.5271 -51.7413 2
46.0189 -57.8177 2
39.0025 -57.8177 2
31.9861 -57.8177 2
24.9697 -57.8177 2
17.9534 -57.8177 2
10.937 -57.8177 2
3.9206 -57.8177 2
-3.09578 -57.8177 2
-10.1122 -57.8177 2
-17.1285 -57.8177 2
-24.1449 -57.8177 2
-31.1613 -57.8177 2
-38.1777 -57.8177 2
-45.1941 -57.8177 2
####ControlPointIndex
1
####SpotTunnedID
0 
####CumulativeMetersetWeight
634
####Energy (MeV)
0
####NbOfScannedSpots
0
####X Y Weight
